PE UV                   SPECTRUM    ASCII       PEDS        1.60        
  -1
ZF-14.SP
15/05/08
12:18:05.00
15/05/08
12:23:02.00
Rambo

350.000000
1









4444

SCAN
1
1


0.0

2.00
MANUAL



VIS




































#HDR
-1
-1
#GR
NM
A
0.00000011920928955078
0.0
2000.000000
5.000000
331
8
300.000000
-1.347423
#DATA
2000.000000	0.031688   
1995.000000	0.167332   
1990.000000	-0.013084  
1985.000000	300.000000 
1980.000000	300.000000 
1975.000000	-1.347423  
1970.000000	0.020077   
1965.000000	0.416053   
1960.000000	300.000000 
1955.000000	0.980637   
1950.000000	-0.030652  
1945.000000	0.069634   
1940.000000	300.000000 
1935.000000	-0.644870  
1930.000000	-0.491277  
1925.000000	0.323157   
1920.000000	300.000000 
1915.000000	-0.218051  
1910.000000	0.581801   
1905.000000	0.865940   
1900.000000	1.949488   
1895.000000	300.000000 
1890.000000	0.293500   
1885.000000	0.413783   
1880.000000	-0.163539  
1875.000000	300.000000 
1870.000000	-0.576348  
1865.000000	-0.038893  
1860.000000	300.000000 
1855.000000	-0.601351  
1850.000000	300.000000 
1845.000000	1.066095   
1840.000000	0.159736   
1835.000000	300.000000 
1830.000000	-0.310288  
1825.000000	-0.188819  
1820.000000	0.873870   
1815.000000	-0.158207  
1810.000000	1.496984   
1805.000000	-0.035025  
1800.000000	-0.524409  
1795.000000	-0.987964  
1790.000000	0.170805   
1785.000000	-0.060602  
1780.000000	-0.496452  
1775.000000	300.000000 
1770.000000	-0.864273  
1765.000000	300.000000 
1760.000000	-0.419296  
1755.000000	300.000000 
1750.000000	-0.576373  
1745.000000	0.044166   
1740.000000	0.640008   
1735.000000	-0.526311  
1730.000000	-0.140790  
1725.000000	-0.083629  
1720.000000	-0.064071  
1715.000000	-0.690106  
1710.000000	-0.356487  
1705.000000	-0.502154  
1700.000000	-1.168827  
1695.000000	0.479949   
1690.000000	300.000000 
1685.000000	300.000000 
1680.000000	-0.010317  
1675.000000	300.000000 
1670.000000	-0.760153  
1665.000000	-0.668019  
1660.000000	0.045028   
1655.000000	0.240210   
1650.000000	0.479027   
1645.000000	0.356383   
1640.000000	300.000000 
1635.000000	0.229039   
1630.000000	-0.191877  
1625.000000	0.056432   
1620.000000	0.188160   
1615.000000	0.381559   
1610.000000	-0.003767  
1605.000000	-0.013409  
1600.000000	0.210433   
1595.000000	-0.145246  
1590.000000	0.076025   
1585.000000	0.140942   
1580.000000	-0.145061  
1575.000000	-0.056526  
1570.000000	0.417664   
1565.000000	0.065057   
1560.000000	-0.088694  
1555.000000	-0.121811  
1550.000000	-0.113872  
1545.000000	0.041436   
1540.000000	0.137542   
1535.000000	0.130267   
1530.000000	-0.029980  
1525.000000	0.107462   
1520.000000	0.220892   
1515.000000	0.167357   
1510.000000	0.135341   
1505.000000	0.196920   
1500.000000	0.085088   
1495.000000	0.210395   
1490.000000	0.187539   
1485.000000	0.200214   
1480.000000	0.210223   
1475.000000	0.188376   
1470.000000	0.165221   
1465.000000	0.274606   
1460.000000	0.211826   
1455.000000	0.137027   
1450.000000	0.147911   
1445.000000	0.243307   
1440.000000	0.203966   
1435.000000	0.197638   
1430.000000	0.313959   
1425.000000	0.248460   
1420.000000	0.266848   
1415.000000	0.309918   
1410.000000	0.238129   
1405.000000	0.246188   
1400.000000	0.293706   
1395.000000	0.336927   
1390.000000	0.317828   
1385.000000	0.301620   
1380.000000	0.348160   
1375.000000	0.353328   
1370.000000	0.325726   
1365.000000	0.360742   
1360.000000	0.351551   
1355.000000	0.361059   
1350.000000	0.399166   
1345.000000	0.392507   
1340.000000	0.394769   
1335.000000	0.402897   
1330.000000	0.434080   
1325.000000	0.467806   
1320.000000	0.450804   
1315.000000	0.429364   
1310.000000	0.425118   
1305.000000	0.447885   
1300.000000	0.444959   
1295.000000	0.463835   
1290.000000	0.493231   
1285.000000	0.467074   
1280.000000	0.457818   
1275.000000	0.491065   
1270.000000	0.503378   
1265.000000	0.519246   
1260.000000	0.512817   
1255.000000	0.515854   
1250.000000	0.549420   
1245.000000	0.557350   
1240.000000	0.552221   
1235.000000	0.543794   
1230.000000	0.569367   
1225.000000	0.579592   
1220.000000	0.593602   
1215.000000	0.598846   
1210.000000	0.610143   
1205.000000	0.611175   
1200.000000	0.598088   
1195.000000	0.595871   
1190.000000	0.606478   
1185.000000	0.632588   
1180.000000	0.612572   
1175.000000	0.628675   
1170.000000	0.667528   
1165.000000	0.661740   
1160.000000	0.659726   
1155.000000	0.653890   
1150.000000	0.653731   
1145.000000	0.664773   
1140.000000	0.669049   
1135.000000	0.675587   
1130.000000	0.677331   
1125.000000	0.674822   
1120.000000	0.694792   
1115.000000	0.703884   
1110.000000	0.705122   
1105.000000	0.707974   
1100.000000	0.709987   
1095.000000	0.723155   
1090.000000	0.721446   
1085.000000	0.714547   
1080.000000	0.714842   
1075.000000	0.728303   
1070.000000	0.753059   
1065.000000	0.755622   
1060.000000	0.740372   
1055.000000	0.751097   
1050.000000	0.754474   
1045.000000	0.748664   
1040.000000	0.764364   
1035.000000	0.777760   
1030.000000	0.785970   
1025.000000	0.779234   
1020.000000	0.763505   
1015.000000	0.770660   
1010.000000	0.775489   
1005.000000	0.761242   
1000.000000	0.782363   
995.000000	 0.810006   
990.000000	 0.803247   
985.000000	 0.791724   
980.000000	 0.792728   
975.000000	 0.802482   
970.000000	 0.806224   
965.000000	 0.778507   
960.000000	 0.778461   
955.000000	 0.836504   
950.000000	 0.835055   
945.000000	 0.788811   
940.000000	 0.813255   
935.000000	 0.818800   
930.000000	 0.821826   
925.000000	 0.834015   
920.000000	 0.818090   
915.000000	 0.809673   
910.000000	 0.819579   
905.000000	 0.827408   
900.000000	 0.861654   
895.000000	 0.813194   
890.000000	 0.730696   
885.000000	 0.892821   
880.000000	 0.976333   
875.000000	 0.950815   
870.000000	 0.759334   
865.000000	 0.678934   
860.000000	 0.978235   
855.000000	 1.088125   
850.000000	 1.040802   
845.000000	 1.059769   
840.000000	 1.027684   
835.000000	 1.008069   
830.000000	 1.003341   
825.000000	 1.006398   
820.000000	 1.006615   
815.000000	 1.005570   
810.000000	 1.007430   
805.000000	 1.010323   
800.000000	 1.011265   
795.000000	 1.014215   
790.000000	 1.020025   
785.000000	 1.020279   
780.000000	 1.025380   
775.000000	 1.025052   
770.000000	 1.028755   
765.000000	 1.028179   
760.000000	 1.032625   
755.000000	 1.035827   
750.000000	 1.037633   
745.000000	 1.041900   
740.000000	 1.044088   
735.000000	 1.046233   
730.000000	 1.048632   
725.000000	 1.049576   
720.000000	 1.053192   
715.000000	 1.056345   
710.000000	 1.057612   
705.000000	 1.059072   
700.000000	 1.061196   
695.000000	 1.063423   
690.000000	 1.064469   
685.000000	 1.063257   
680.000000	 1.063424   
675.000000	 1.064880   
670.000000	 1.066504   
665.000000	 1.067483   
660.000000	 1.066871   
655.000000	 1.065826   
650.000000	 1.066152   
645.000000	 1.065562   
640.000000	 1.063435   
635.000000	 1.060218   
630.000000	 1.056644   
625.000000	 1.052740   
620.000000	 1.048644   
615.000000	 1.044419   
610.000000	 1.039122   
605.000000	 1.033582   
600.000000	 1.028863   
595.000000	 1.022672   
590.000000	 1.016968   
585.000000	 1.011766   
580.000000	 1.007019   
575.000000	 1.003501   
570.000000	 1.002250   
565.000000	 1.001832   
560.000000	 1.002565   
555.000000	 1.002839   
550.000000	 1.005076   
545.000000	 1.011711   
540.000000	 1.021965   
535.000000	 1.037207   
530.000000	 1.054483   
525.000000	 1.074892   
520.000000	 1.098436   
515.000000	 1.146141   
510.000000	 1.240280   
505.000000	 1.464943   
500.000000	 1.823286   
495.000000	 2.241903   
490.000000	 2.674018   
485.000000	 3.081443   
480.000000	 2.458748   
475.000000	 1.697952   
470.000000	 300.000000 
465.000000	 0.000000   
460.000000	 0.000000   
455.000000	 7.712650   
450.000000	 300.000000 
445.000000	 300.000000 
440.000000	 300.000000 
435.000000	 300.000000 
430.000000	 300.000000 
425.000000	 300.000000 
420.000000	 300.000000 
415.000000	 300.000000 
410.000000	 300.000000 
405.000000	 3.554947   
400.000000	 3.945175   
395.000000	 3.368350   
390.000000	 2.901253   
385.000000	 2.954701   
380.000000	 2.559710   
375.000000	 3.328937   
370.000000	 0.000000   
365.000000	 0.000000   
360.000000	 0.000000   
355.000000	 0.000000   
350.000000	 0.000000   

