PE UV                   SPECTRUM    ASCII       PEDS        1.60        
  -1
ZF-12.SP
15/05/08
12:01:47.00
15/05/08
12:07:24.00
Rambo

350.000000
1









4444

SCAN
1
1


0.0

2.00
MANUAL



VIS




































#HDR
-1
-1
#GR
NM
A
0.00000011920928955078
0.0
2000.000000
5.000000
331
8
300.000000
-1.282021
#DATA
2000.000000	1.537321   
1995.000000	0.249887   
1990.000000	0.062921   
1985.000000	300.000000 
1980.000000	0.688735   
1975.000000	-0.177658  
1970.000000	-0.271262  
1965.000000	-0.647418  
1960.000000	300.000000 
1955.000000	0.635058   
1950.000000	0.179083   
1945.000000	-0.239891  
1940.000000	300.000000 
1935.000000	0.290502   
1930.000000	0.813340   
1925.000000	-0.022249  
1920.000000	1.483735   
1915.000000	-0.071390  
1910.000000	2.659141   
1905.000000	300.000000 
1900.000000	1.778547   
1895.000000	300.000000 
1890.000000	0.442259   
1885.000000	0.279495   
1880.000000	-0.082022  
1875.000000	300.000000 
1870.000000	300.000000 
1865.000000	-1.282021  
1860.000000	300.000000 
1855.000000	-0.607150  
1850.000000	-0.365033  
1845.000000	0.790865   
1840.000000	0.717159   
1835.000000	300.000000 
1830.000000	0.042021   
1825.000000	300.000000 
1820.000000	0.465355   
1815.000000	-0.374047  
1810.000000	-0.705906  
1805.000000	0.421594   
1800.000000	-0.099640  
1795.000000	300.000000 
1790.000000	300.000000 
1785.000000	300.000000 
1780.000000	-0.360396  
1775.000000	300.000000 
1770.000000	-1.144025  
1765.000000	0.270478   
1760.000000	-0.296036  
1755.000000	300.000000 
1750.000000	-0.695606  
1745.000000	0.050852   
1740.000000	300.000000 
1735.000000	300.000000 
1730.000000	0.522929   
1725.000000	0.224368   
1720.000000	300.000000 
1715.000000	-0.085141  
1710.000000	0.078492   
1705.000000	0.446336   
1700.000000	0.103667   
1695.000000	300.000000 
1690.000000	300.000000 
1685.000000	300.000000 
1680.000000	-0.069285  
1675.000000	-0.394860  
1670.000000	300.000000 
1665.000000	300.000000 
1660.000000	300.000000 
1655.000000	300.000000 
1650.000000	300.000000 
1645.000000	300.000000 
1640.000000	0.207569   
1635.000000	0.689611   
1630.000000	0.452809   
1625.000000	0.033969   
1620.000000	0.636049   
1615.000000	0.542432   
1610.000000	300.000000 
1605.000000	300.000000 
1600.000000	0.454480   
1595.000000	-0.016519  
1590.000000	0.311502   
1585.000000	0.792609   
1580.000000	0.219215   
1575.000000	0.546809   
1570.000000	0.214594   
1565.000000	0.783112   
1560.000000	300.000000 
1555.000000	0.489338   
1550.000000	0.417691   
1545.000000	0.301149   
1540.000000	1.163730   
1535.000000	0.784811   
1530.000000	300.000000 
1525.000000	0.659164   
1520.000000	300.000000 
1515.000000	1.464599   
1510.000000	1.358425   
1505.000000	0.832233   
1500.000000	1.151276   
1495.000000	1.327679   
1490.000000	1.102248   
1485.000000	0.688285   
1480.000000	0.534535   
1475.000000	1.268822   
1470.000000	0.770009   
1465.000000	0.681405   
1460.000000	0.817344   
1455.000000	1.031994   
1450.000000	1.065994   
1445.000000	1.069805   
1440.000000	0.782660   
1435.000000	1.114133   
1430.000000	1.084273   
1425.000000	0.783792   
1420.000000	0.772708   
1415.000000	0.836869   
1410.000000	1.059366   
1405.000000	1.092859   
1400.000000	0.965702   
1395.000000	1.389205   
1390.000000	1.005924   
1385.000000	0.833385   
1380.000000	0.680282   
1375.000000	0.840164   
1370.000000	1.004252   
1365.000000	1.144729   
1360.000000	1.096940   
1355.000000	1.276307   
1350.000000	1.044015   
1345.000000	0.980770   
1340.000000	1.145728   
1335.000000	1.003002   
1330.000000	1.045237   
1325.000000	1.162988   
1320.000000	1.038646   
1315.000000	1.037849   
1310.000000	1.079571   
1305.000000	1.091097   
1300.000000	1.134757   
1295.000000	1.188193   
1290.000000	1.088434   
1285.000000	1.012637   
1280.000000	0.978621   
1275.000000	1.073492   
1270.000000	1.075753   
1265.000000	0.988309   
1260.000000	0.970572   
1255.000000	0.937503   
1250.000000	1.024031   
1245.000000	1.060849   
1240.000000	1.035679   
1235.000000	1.037638   
1230.000000	1.022013   
1225.000000	0.993624   
1220.000000	1.043925   
1215.000000	1.004011   
1210.000000	0.974517   
1205.000000	0.979533   
1200.000000	0.981641   
1195.000000	1.005640   
1190.000000	1.005757   
1185.000000	0.978966   
1180.000000	0.970934   
1175.000000	0.974629   
1170.000000	1.017529   
1165.000000	0.987604   
1160.000000	0.973407   
1155.000000	0.973292   
1150.000000	0.975447   
1145.000000	0.981637   
1140.000000	0.978562   
1135.000000	0.987765   
1130.000000	0.971206   
1125.000000	0.969381   
1120.000000	0.987960   
1115.000000	0.963984   
1110.000000	0.987570   
1105.000000	0.998438   
1100.000000	0.988635   
1095.000000	0.980338   
1090.000000	0.956404   
1085.000000	0.970573   
1080.000000	0.988915   
1075.000000	0.966202   
1070.000000	0.943229   
1065.000000	0.961781   
1060.000000	0.998385   
1055.000000	0.979790   
1050.000000	0.962734   
1045.000000	0.951519   
1040.000000	0.941446   
1035.000000	0.945964   
1030.000000	0.970321   
1025.000000	0.952318   
1020.000000	0.941512   
1015.000000	0.955282   
1010.000000	0.942115   
1005.000000	0.918142   
1000.000000	0.924953   
995.000000	 0.941790   
990.000000	 0.922637   
985.000000	 0.929295   
980.000000	 0.953087   
975.000000	 0.912965   
970.000000	 0.904420   
965.000000	 0.906765   
960.000000	 0.909330   
955.000000	 0.920821   
950.000000	 0.868934   
945.000000	 0.893041   
940.000000	 0.907618   
935.000000	 0.887029   
930.000000	 0.883694   
925.000000	 0.902635   
920.000000	 0.847252   
915.000000	 0.854437   
910.000000	 0.898837   
905.000000	 0.858464   
900.000000	 0.832606   
895.000000	 0.865562   
890.000000	 0.848961   
885.000000	 0.805991   
880.000000	 0.714568   
875.000000	 0.849148   
870.000000	 0.842375   
865.000000	 0.840518   
860.000000	 0.864241   
855.000000	 0.884061   
850.000000	 0.941001   
845.000000	 0.952116   
840.000000	 0.928710   
835.000000	 0.912071   
830.000000	 0.901115   
825.000000	 0.898521   
820.000000	 0.897314   
815.000000	 0.890414   
810.000000	 0.885050   
805.000000	 0.885973   
800.000000	 0.887376   
795.000000	 0.885936   
790.000000	 0.883497   
785.000000	 0.882558   
780.000000	 0.883714   
775.000000	 0.884385   
770.000000	 0.884897   
765.000000	 0.883476   
760.000000	 0.882630   
755.000000	 0.883127   
750.000000	 0.882123   
745.000000	 0.880151   
740.000000	 0.878731   
735.000000	 0.879212   
730.000000	 0.877490   
725.000000	 0.877532   
720.000000	 0.877840   
715.000000	 0.879063   
710.000000	 0.878862   
705.000000	 0.878922   
700.000000	 0.878575   
695.000000	 0.879885   
690.000000	 0.878673   
685.000000	 0.878241   
680.000000	 0.879505   
675.000000	 0.880834   
670.000000	 0.883251   
665.000000	 0.885138   
660.000000	 0.887544   
655.000000	 0.890163   
650.000000	 0.892964   
645.000000	 0.897713   
640.000000	 0.903203   
635.000000	 0.907472   
630.000000	 0.911737   
625.000000	 0.915768   
620.000000	 0.919993   
615.000000	 0.923271   
610.000000	 0.925909   
605.000000	 0.929943   
600.000000	 0.934169   
595.000000	 0.935586   
590.000000	 0.937226   
585.000000	 0.937719   
580.000000	 0.937496   
575.000000	 0.936034   
570.000000	 0.933902   
565.000000	 0.930286   
560.000000	 0.925744   
555.000000	 0.926941   
550.000000	 0.927308   
545.000000	 0.926624   
540.000000	 0.926450   
535.000000	 0.927500   
530.000000	 0.928389   
525.000000	 0.931012   
520.000000	 0.935637   
515.000000	 0.942349   
510.000000	 0.954164   
505.000000	 0.976998   
500.000000	 1.013695   
495.000000	 1.055096   
490.000000	 1.098647   
485.000000	 1.145159   
480.000000	 1.197810   
475.000000	 1.166530   
470.000000	 300.000000 
465.000000	 0.000000   
460.000000	 0.000000   
455.000000	 0.000000   
450.000000	 1.568791   
445.000000	 1.821769   
440.000000	 1.660379   
435.000000	 1.630669   
430.000000	 1.653934   
425.000000	 1.700544   
420.000000	 1.756818   
415.000000	 1.810758   
410.000000	 1.863611   
405.000000	 1.914407   
400.000000	 1.977141   
395.000000	 2.037541   
390.000000	 2.103264   
385.000000	 2.117539   
380.000000	 2.103081   
375.000000	 2.246372   
370.000000	 0.000000   
365.000000	 0.000000   
360.000000	 0.000000   
355.000000	 0.000000   
350.000000	 0.000000   

